Tiempo (s)  Temperatura (C)  Voltaje HV (V)   Corriente SiPM
0.10            20.26            41.40            0.97
1.52            20.07            41.39            1.10
1.93            20.41            41.44            1.79
2.33            20.31            41.39            0.33
2.74            19.92            41.40            1.47
5.17            20.36            41.44            5.90
8.60            20.07            41.50            0.94
9.01            20.26            41.52            1.22
9.41            20.41            41.49            1.48
9.82            20.31            41.49            1.51
10.23            20.02            41.46            1.01
10.63            20.17            41.47            1.24
11.04            19.97            41.46            1.08
13.47            20.12            41.59            4.87
16.90            20.21            41.49            0.97
17.30            20.31            41.56            1.04
17.71            20.51            41.56            1.20
18.12            20.36            41.53            1.38
18.52            20.21            41.53            1.01
18.93            20.36            41.52            1.13
19.34            20.21            41.52            0.86
19.74            20.12            41.52            0.79
20.15            20.26            41.56            0.80
20.55            20.46            41.50            0.87
20.96            20.12            41.51            0.85
21.37            20.41            41.49            1.13
21.77            20.31            42.14            1.12
22.18            20.51            41.94            0.84
22.59            20.31            41.97            1.28
22.99            20.41            42.00            1.08
23.40            20.65            41.96            1.12
23.80            20.31            42.01            1.16
24.21            20.31            42.02            1.00
24.62            20.46            42.02            1.33
25.03            20.41            41.97            1.25
25.43            20.41            42.02            1.06
25.84            20.17            42.00            0.89
26.24            20.46            42.00            1.15
26.65            20.12            42.04            0.81
27.06            20.51            42.00            1.42
27.46            20.31            42.02            0.69
27.87            20.17            42.01            0.92
28.28            20.46            42.02            0.44
28.68            20.26            42.03            0.55
29.09            20.56            42.55            1.37
29.50            20.21            42.63            1.30
29.90            20.17            42.46            0.90
30.31            20.61            42.47            0.85
30.71            20.26            42.48            0.69
31.12            20.07            42.49            0.59
31.53            20.56            42.50            0.63
31.93            20.46            42.49            0.87
32.34            20.31            42.50            0.62
32.75            20.26            43.15            0.74
33.15            20.12            42.92            1.02
33.56            20.56            42.93            0.83
33.97            20.41            42.92            1.63
34.37            20.31            42.97            1.23
34.78            20.41            42.93            0.54
35.18            20.17            42.97            0.34
35.59            20.21            42.99            1.36
36.00            20.41            42.99            0.67
36.40            20.51            42.97            0.99
36.81            20.21            42.99            0.86
37.22            20.31            42.97            0.76
37.62            20.26            43.56            1.12
38.03            20.26            43.51            0.85
38.44            20.61            43.42            1.54
38.84            20.26            43.45            1.05
39.25            20.46            43.44            0.37
39.66            20.17            43.41            0.85
40.06            20.26            43.47            0.83
40.47            20.36            43.48            0.91
40.88            20.36            43.43            0.79
41.28            20.17            43.49            1.08
41.69            20.26            43.46            1.42
42.09            20.31            43.43            1.54
42.50            20.36            43.50            0.86
42.91            20.36            44.10            1.18
43.31            20.31            44.12            1.25
43.72            20.17            43.90            1.68
44.13            20.17            43.93            1.05
44.53            20.56            43.93            1.03
44.94            20.46            43.91            0.78
45.34            20.36            43.94            0.61
45.75            20.17            43.93            0.44
46.16            19.92            43.96            0.66
48.59            20.02            44.36            7.21
52.02            20.46            44.42            1.64
52.42            20.26            44.46            1.49
52.83            20.36            44.49            1.31
53.24            20.36            44.45            1.18
53.64            20.17            44.39            0.94
54.05            20.07            44.42            0.97
54.46            19.92            44.48            1.11
56.88            20.12            44.96            6.65
60.31            20.36            44.90            1.42
60.72            20.12            44.99            1.68
61.13            20.46            44.95            1.37
61.53            20.12            44.91            1.47
61.94            20.12            44.91            1.06
62.35            20.17            44.91            1.14
62.75            20.36            44.94            1.08
63.16            20.26            44.89            0.98
63.57            20.12            44.94            1.18
63.97            20.31            44.93            1.17
64.38            20.02            44.96            1.22
64.78            19.97            44.92            1.15
67.21            20.31            45.47            5.34
70.64            20.21            45.41            1.24
71.05            20.12            45.43            1.56
71.46            20.12            45.43            0.97
71.86            20.46            45.41            1.43
72.27            20.17            45.42            1.28
72.68            20.07            45.40            1.12
73.08            20.07            45.42            1.03
73.49            20.12            45.45            1.03
73.89            20.51            45.43            1.14
74.30            19.87            45.40            1.25
76.73            20.46            45.80            6.39
80.16            20.51            45.88            1.98
80.57            20.41            45.92            1.35
80.97            20.21            46.51            1.48
81.38            20.26            46.50            1.27
81.79            20.21            46.35            1.33
82.19            20.21            46.33            1.02
82.60            20.26            46.33            1.13
83.01            20.17            46.35            0.94
83.41            20.41            46.34            1.02
83.82            20.51            46.36            0.85
84.22            20.31            46.40            1.01
84.63            20.46            46.40            0.89
85.04            20.31            46.41            0.81
85.44            20.41            46.39            1.00
85.85            20.26            46.37            0.76
86.26            20.31            46.38            0.79
86.66            20.31            46.39            0.76
87.07            20.51            46.96            0.80
87.48            20.31            46.97            1.31
87.88            20.17            46.85            0.75
88.29            20.36            46.84            0.63
88.69            20.21            46.83            0.80
89.10            20.41            46.88            1.21
89.51            20.56            46.83            1.48
89.91            20.51            46.87            0.73
90.32            20.46            46.90            1.35
90.73            20.41            46.90            0.67
91.13            20.46            46.89            0.65
91.54            20.61            46.90            0.40
91.95            20.36            46.87            0.68
92.35            20.21            47.50            1.43
92.76            20.31            47.33            0.86
93.16            20.41            47.30            1.25
93.57            20.56            47.33            1.60
93.98            20.26            47.32            0.59
94.38            20.21            47.32            1.66
94.79            20.61            47.33            1.58
95.20            20.56            47.36            0.43
95.60            20.17            47.35            0.52
96.01            20.31            47.32            0.83
96.42            20.61            47.37            0.72
96.82            20.41            47.34            0.87
97.23            20.26            47.32            0.53
97.63            20.41            47.34            0.31
98.04            20.31            47.34            0.63
98.45            20.36            47.36            1.03
98.85            20.26            47.33            1.19
99.26            20.41            48.01            1.17
99.67            20.26            47.86            0.67
100.07            20.31            47.80            1.59
100.48            20.12            47.84            0.71
100.89            20.36            47.82            0.97
101.29            20.26            47.83            1.05
101.70            20.41            47.86            1.33
102.11            20.36            47.84            1.34
102.51            20.36            47.82            1.06
102.92            20.26            47.85            0.70
103.33            20.46            47.85            1.33
103.73            20.12            47.88            0.46
104.14            20.41            47.81            1.89
104.55            20.21            47.84            0.54
104.95            20.41            47.80            0.87
105.36            20.31            47.82            1.39
105.76            20.26            47.82            0.64
106.17            20.36            47.86            1.18
106.58            20.26            47.89            0.48
106.98            20.41            47.80            1.10
107.39            20.12            47.82            0.40
107.80            20.36            47.84            0.43
108.20            20.46            48.43            1.17
108.61            20.46            48.38            0.56
109.02            20.70            48.32            0.80
109.42            20.12            48.37            1.52
109.83            20.26            48.38            1.11
110.24            20.41            48.33            0.53
110.64            20.17            48.29            1.42
111.05            20.36            48.33            0.55
111.45            20.07            48.40            1.32
111.86            20.07            48.31            1.26
112.27            20.21            48.32            1.79
112.67            20.26            48.35            1.62
113.08            20.02            48.35            0.52
113.49            20.02            48.36            1.59
113.89            20.26            48.38            0.55
114.30            20.21            48.36            1.65
114.71            20.21            48.36            0.85
115.11            20.12            48.35            1.59
115.52            20.26            48.32            1.42
115.93            20.12            48.33            0.52
116.33            20.07            48.92            1.23
116.74            20.17            48.80            0.81
117.15            20.36            48.80            0.48
117.55            20.12            48.83            0.93
117.96            20.07            48.83            1.26
118.37            20.41            48.84            0.85
118.77            19.97            48.84            0.71
121.20            20.02            48.72            6.76
124.63            19.97            49.29            0.91
127.06            19.87            49.20            5.74
127.47            19.82            49.23            4.04
127.87            20.17            49.23            5.41
131.30            20.36            49.80            2.51
131.71            20.12            49.83            1.23
132.12            20.31            49.77            1.70
132.52            20.17            49.81            1.41
132.93            20.26            49.85            0.95
133.33            19.73            49.81            1.24
135.76            20.17            49.73            5.05
139.19            20.21            50.32            2.05
139.60            20.65            50.27            1.92
140.01            20.41            50.25            1.20
140.41            20.17            50.26            1.46
140.82            20.31            50.24            1.59
141.23            20.12            50.24            1.53
141.63            20.31            50.34            1.14
142.04            20.17            50.29            1.10
142.45            20.21            50.28            1.23
142.85            20.26            50.29            1.20
143.26            20.26            50.30            1.01
143.66            20.65            50.32            1.25
144.07            20.46            50.28            1.05
144.48            20.31            50.30            1.33
144.88            20.36            50.28            1.23
145.29            19.92            50.31            1.25
147.72            20.41            50.49            7.45
151.15            20.36            50.82            1.15
151.56            20.41            50.77            1.57
151.96            20.46            50.77            1.38
152.37            20.36            50.77            1.18
152.78            20.46            50.78            1.34
153.18            20.51            50.78            1.17
153.59            20.41            50.79            1.20
153.99            20.61            50.77            1.23
154.40            20.36            50.79            1.15
154.81            20.70            50.77            1.17
155.21            20.61            50.78            1.09
155.62            20.75            50.79            0.83
156.03            20.56            50.75            0.98
156.43            20.41            50.81            0.91
156.84            20.31            50.78            1.28
157.25            20.31            50.78            0.87
157.65            20.70            50.80            1.29
158.06            20.31            50.72            1.61
158.47            20.41            50.77            1.28
158.87            20.46            50.76            1.66
159.28            20.56            50.76            1.11
159.68            20.31            50.73            1.12
160.09            20.26            50.79            1.00
160.50            20.36            50.79            0.94
160.90            20.56            50.78            1.35
161.31            20.46            50.79            0.66
161.72            20.65            50.79            1.23
162.12            20.61            50.79            0.60
162.53            20.41            50.76            1.02
162.94            20.61            50.80            0.83
163.34            20.65            50.77            0.65
163.75            20.51            50.74            1.18
164.16            20.26            50.79            0.80
164.56            20.41            50.80            1.19
164.97            20.46            50.75            1.43
165.37            20.12            50.74            0.62
165.78            20.31            50.80            1.51
166.19            20.31            50.79            0.72
166.59            20.46            50.78            0.64
167.00            20.31            50.75            1.44
167.41            20.51            50.79            0.37
167.81            20.46            51.34            1.49
168.22            20.41            51.31            0.70
168.63            20.56            51.25            0.66
169.03            20.41            51.28            1.35
169.44            20.46            51.28            0.66
169.85            20.46            51.25            1.88
170.25            20.61            51.23            1.32
170.66            20.51            51.32            1.32
171.07            20.41            51.29            1.49
171.47            20.41            51.28            0.80
171.88            20.65            51.26            0.61
172.28            20.21            51.29            1.06
172.69            20.26            51.31            0.77
173.10            20.31            51.25            0.89
173.50            20.36            51.81            1.51
173.91            20.41            51.73            1.15
174.32            20.56            51.76            1.63
174.72            20.41            51.76            1.12
175.13            20.41            51.75            0.66
175.54            20.21            51.78            0.94
175.94            20.36            51.76            1.32
176.35            20.41            51.73            0.61
176.76            20.61            51.75            1.34
177.16            20.26            51.73            0.59
177.57            20.36            51.72            0.89
177.98            20.26            51.76            1.53
178.38            20.41            51.77            0.94
178.79            20.17            51.75            1.60
179.19            20.17            51.80            1.27
179.60            20.41            51.77            0.73
180.01            20.41            51.78            1.32
180.41            20.61            52.29            1.01
180.82            20.51            52.25            1.17
181.23            20.51            52.25            1.54
181.63            20.36            52.21            0.48
182.04            20.26            52.19            0.77
182.45            20.41            52.28            1.54
182.85            20.51            52.27            1.70
183.26            20.51            52.24            0.76
183.67            20.17            52.21            0.65
184.07            20.41            52.29            1.69
184.48            20.21            52.21            0.90
184.89            20.17            52.25            0.75
185.29            20.21            52.25            0.94
185.70            20.46            52.26            0.89
186.10            20.56            52.82            2.29
186.51            20.41            52.74            2.96
186.92            20.21            52.71            1.85
187.32            20.56            52.69            2.49
187.73            20.31            52.70            2.11
188.14            20.36            52.70            2.94
188.54            20.36            52.73            2.92
188.95            20.31            52.76            2.13
189.36            20.26            52.76            2.80
189.76            20.07            52.72            1.90
190.17            20.21            52.73            2.95
190.58            20.56            52.79            2.01
190.98            20.36            52.77            2.02
191.39            20.26            52.72            1.95
191.80            20.21            52.77            2.83
