Tiempo (s)  Temperatura (C)  Voltaje HV (V)   Corriente SiPM
0.10            9.96            41.37            0.77
1.52            10.06            41.39            1.52
4.95            10.25            41.49            1.25
5.36            10.11            41.49            1.22
5.77            10.21            41.48            1.15
6.17            10.25            41.46            1.20
6.58            10.21            41.46            1.21
6.98            10.40            41.50            1.17
7.39            10.40            41.47            1.19
7.80            10.16            41.47            1.20
8.20            10.30            41.48            1.18
8.61            10.21            41.44            1.17
9.02            10.21            41.51            1.20
9.42            10.25            41.46            1.21
9.83            10.16            41.47            1.12
10.23            10.21            41.46            1.11
10.64            10.35            41.46            1.17
11.05            10.06            41.52            1.15
11.45            10.16            41.47            1.11
11.86            10.45            41.56            1.31
12.27            10.25            41.66            1.20
12.67            10.30            41.48            1.02
13.08            10.21            41.48            1.22
13.49            10.35            41.46            1.28
13.89            10.16            41.47            1.24
14.30            10.40            41.49            1.19
14.71            10.30            41.54            1.14
15.11            10.45            41.52            1.19
15.52            10.21            41.51            1.09
15.92            10.25            41.50            1.10
16.33            10.55            41.51            1.11
16.74            10.11            41.50            1.18
17.14            10.35            41.49            1.22
17.55            10.16            41.56            1.18
17.96            10.21            41.52            1.09
18.36            10.30            41.49            1.20
18.77            10.21            41.52            1.16
19.18            10.35            41.53            1.20
19.58            10.11            41.52            1.21
19.99            10.25            41.50            1.11
20.39            10.40            42.13            1.13
20.80            10.16            41.95            1.13
21.21            10.35            41.97            1.19
21.61            10.35            42.00            1.17
22.02            10.40            42.02            1.15
22.43            10.01            42.03            1.19
22.83            10.16            42.01            1.15
23.24            10.40            42.00            1.03
23.65            10.45            42.01            1.12
24.05            10.25            42.00            1.14
24.46            10.30            42.03            1.00
24.86            10.11            42.01            1.00
25.27            9.86            42.03            1.03
27.70            10.16            42.53            1.50
31.13            10.01            42.50            1.21
31.54            10.16            42.53            1.16
31.94            10.06            42.51            1.10
32.35            10.25            42.49            1.15
32.76            10.01            42.52            1.17
33.16            9.96            42.50            1.04
35.59            9.67            42.42            1.53
36.00            9.96            43.00            1.62
36.40            9.96            42.97            1.66
36.81            9.62            42.87            1.64
37.22            9.72            42.90            1.65
37.62            10.01            42.86            1.62
41.05            9.72            43.02            1.34
43.48            9.62            43.37            1.55
43.89            9.91            43.38            1.62
44.30            9.62            43.37            1.60
44.70            9.67            43.35            1.62
45.11            9.62            43.38            1.64
45.51            9.86            43.39            1.66
45.92            9.57            43.40            1.54
46.33            9.67            43.38            1.67
46.73            9.81            43.38            1.67
47.14            9.72            43.40            1.70
47.55            9.67            43.36            1.63
47.95            9.81            43.40            1.64
48.36            9.72            43.40            1.69
48.76            9.67            43.39            1.69
49.17            9.52            43.44            1.55
49.58            9.67            43.41            1.64
49.98            9.52            43.38            1.66
50.39            9.62            43.41            1.69
50.80            9.57            43.41            1.71
51.20            9.67            43.40            1.70
51.61            9.62            43.37            1.67
52.02            9.62            43.40            1.75
52.42            9.81            43.42            1.69
52.83            9.91            43.37            1.71
53.23            9.77            43.38            1.69
53.64            9.57            43.36            1.77
54.05            9.57            43.96            1.67
54.45            9.67            43.97            1.66
54.86            9.47            43.84            1.58
55.27            9.47            43.84            1.70
55.67            9.67            43.84            1.72
56.08            9.81            43.87            1.65
56.49            9.77            43.87            1.69
56.89            9.77            43.85            1.71
57.30            9.72            43.86            1.80
57.70            9.62            43.86            1.71
58.11            9.67            43.87            1.73
58.52            9.62            43.90            1.76
58.92            9.72            43.87            1.70
59.33            10.01            43.86            1.72
62.76            9.62            44.40            1.51
65.19            9.72            44.34            1.67
65.59            9.62            44.32            1.66
66.00            9.67            44.36            1.68
66.41            9.62            44.39            1.65
66.81            9.86            44.37            1.72
67.22            9.86            44.32            1.70
67.63            9.67            44.92            1.81
68.03            9.77            44.98            1.65
68.44            9.96            44.82            1.73
68.84            9.91            44.88            1.66
69.25            9.67            44.86            1.72
69.66            10.01            44.84            1.71
73.09            10.06            44.93            1.41
73.50            10.11            44.92            1.40
73.90            10.35            44.92            1.40
74.31            9.81            44.92            1.36
76.74            10.16            45.30            1.66
80.17            10.16            45.41            1.38
80.57            10.06            45.45            1.41
80.98            10.16            45.43            1.41
81.39            10.16            45.42            1.35
81.79            10.30            45.44            1.23
82.20            10.16            45.43            1.30
82.61            10.21            45.43            1.21
83.01            10.11            45.41            1.22
83.42            10.35            45.43            1.24
83.82            10.25            45.43            1.33
84.23            10.25            45.42            1.28
84.64            10.01            45.97            1.38
85.04            10.11            46.05            1.31
85.45            10.16            45.83            1.23
85.86            10.16            45.87            1.32
86.26            10.01            45.87            1.32
86.67            10.11            45.89            1.28
87.08            10.16            45.86            1.31
87.48            10.06            45.89            1.27
87.89            10.30            45.90            1.37
88.30            10.06            45.90            1.35
88.70            10.35            45.89            1.22
89.11            10.45            45.86            1.25
89.51            9.91            45.91            1.32
91.94            10.21            46.22            1.72
95.37            10.21            46.39            1.23
95.78            10.21            46.41            1.28
96.19            10.01            46.39            1.22
96.59            10.25            46.39            1.21
97.00            10.21            46.40            1.21
97.40            10.06            46.34            1.22
97.81            10.11            46.37            1.28
98.22            10.25            46.38            1.22
98.62            10.35            46.38            1.25
99.03            10.16            46.37            1.32
99.44            10.30            46.36            1.22
99.84            10.30            46.38            1.23
100.25            10.16            46.38            1.34
100.66            10.21            46.39            1.35
101.06            10.01            46.98            1.26
101.47            10.21            46.80            1.34
101.88            10.21            46.83            1.33
102.28            10.16            46.88            1.30
102.69            9.96            46.89            1.36
105.12            10.11            46.79            1.47
108.55            10.16            47.42            1.36
108.95            9.96            47.34            1.27
111.38            9.91            47.24            1.49
111.79            9.81            47.27            1.47
112.20            10.06            47.26            1.55
115.63            9.67            47.83            1.39
118.05            9.81            47.69            1.38
118.46            9.57            47.73            1.38
118.87            10.01            47.71            1.34
122.30            9.62            48.36            1.28
124.73            9.77            48.24            1.33
125.13            9.77            48.25            1.28
125.54            9.77            48.24            1.34
125.95            9.91            48.21            1.30
126.35            9.77            48.24            1.38
126.76            9.91            48.28            1.34
127.17            9.86            48.27            1.22
127.57            9.72            48.22            1.19
127.98            9.91            48.21            1.20
128.39            9.91            48.82            1.19
128.79            9.96            48.80            1.09
129.20            9.81            48.67            1.13
129.60            9.72            48.69            1.15
130.01            9.67            48.71            1.16
130.42            9.62            48.73            1.13
130.82            9.72            48.73            1.11
131.23            9.81            48.71            1.13
131.64            9.62            48.74            1.10
132.04            9.81            48.72            1.04
132.45            9.81            48.72            1.03
132.85            9.77            48.73            0.95
133.26            9.67            48.71            1.03
133.67            9.81            48.70            1.05
134.07            9.47            48.75            1.04
134.48            9.91            49.28            1.01
134.89            9.72            49.16            1.14
135.29            9.72            49.15            1.20
135.70            9.62            49.19            1.16
136.11            9.86            49.20            1.17
136.51            9.72            49.20            1.10
136.92            9.81            49.20            1.02
137.33            9.77            49.22            1.04
137.73            9.77            49.22            1.12
138.14            9.62            49.21            1.09
138.55            9.67            49.77            1.30
138.95            9.72            49.67            1.19
139.36            9.96            49.65            1.13
139.76            9.86            49.68            1.14
140.17            9.86            49.71            1.27
140.58            9.72            49.68            1.19
140.98            9.91            49.67            1.11
141.39            9.81            49.68            1.13
141.80            9.72            49.71            1.12
142.20            9.96            49.68            1.14
142.61            9.86            49.65            1.08
143.01            9.67            49.66            1.15
143.42            9.67            49.67            1.08
143.83            9.81            49.68            1.05
144.23            9.72            49.70            1.07
144.64            9.33            49.68            1.04
145.05            9.91            49.67            1.06
145.45            9.62            49.72            1.01
145.86            9.81            49.68            1.01
146.27            10.06            49.68            1.08
149.70            9.96            50.28            1.27
152.13            9.96            50.13            1.63
152.53            10.11            50.16            1.66
155.96            10.11            50.74            1.31
156.37            10.25            50.75            1.31
156.78            9.81            50.77            1.34
159.20            10.01            50.67            1.64
162.63            10.21            51.19            0.81
163.04            10.11            51.22            0.79
163.45            10.50            51.19            0.82
163.85            10.45            51.22            0.77
164.26            10.16            51.21            0.75
164.67            10.16            51.23            0.77
165.07            10.25            51.19            0.75
165.48            10.45            51.21            0.73
165.89            10.16            51.20            0.73
166.29            10.35            51.80            0.93
166.70            10.21            51.80            0.90
167.11            10.30            51.67            0.81
167.51            10.40            51.67            0.79
167.92            10.16            51.70            0.74
168.32            10.25            51.69            0.70
168.73            10.35            51.70            0.73
169.14            10.40            51.70            0.72
169.54            10.40            51.70            0.67
169.95            10.25            51.73            0.70
170.36            10.11            51.72            0.73
170.76            10.45            51.70            0.76
171.17            10.16            51.69            0.77
171.58            10.35            51.72            0.74
171.98            10.50            52.25            1.58
172.39            10.11            52.23            1.38
172.79            10.16            52.21            1.48
173.20            10.30            52.19            1.52
173.61            10.50            52.17            1.46
174.01            10.69            52.19            1.57
174.42            10.35            52.21            1.52
174.83            10.16            52.17            1.52
175.23            10.35            52.22            1.49
175.64            10.30            52.19            1.55
176.05            10.40            52.21            1.53
176.45            10.16            52.21            1.58
176.86            10.55            52.20            1.50
177.27            10.40            52.16            1.57
177.67            10.25            52.19            1.60
178.08            10.21            52.15            1.59
178.49            10.30            52.25            1.55
178.89            10.30            52.20            1.51
179.30            10.35            52.17            1.56
179.70            10.35            52.35            2.31
180.11            10.45            52.70            2.75
180.52            10.30            52.65            2.65
180.92            10.30            52.64            2.73
181.33            10.35            52.66            2.75
181.74            10.35            52.62            2.76
182.14            10.16            52.67            2.64
182.55            10.35            52.61            2.79
182.96            10.25            52.69            2.69
183.36            10.16            52.68            2.69
183.77            10.25            52.69            2.81
184.18            10.25            52.68            2.74
184.58            10.40            52.71            2.68
184.99            10.16            52.67            2.77
185.40            10.25            52.69            2.80
185.80            10.11            52.65            2.91
186.21            10.25            53.14            4.24
186.61            10.30            53.20            4.40
187.02            10.30            53.17            4.23
187.43            10.35            53.17            4.26
187.83            10.11            53.16            4.28
188.24            10.01            53.18            4.37
188.65            10.11            53.18            4.25
189.05            9.96            53.18            4.31
191.48            10.21            53.09            4.10
194.91            10.45            53.71            5.47
195.32            10.21            53.66            6.04
195.73            10.06            53.67            5.65
196.13            10.11            53.64            6.04
196.54            9.86            53.63            5.92
198.97            9.81            53.66            5.63
199.37            10.01            53.60            6.02
202.80            9.91            54.13            7.56
205.23            9.77            54.06            7.60
205.64            9.67            54.07            7.65
206.05            9.86            54.06            7.88
206.45            9.86            54.06            7.61
206.86            9.86            54.08            7.93
207.26            9.47            54.06            7.64
207.67            9.72            54.00            7.86
208.08            9.62            54.07            7.57
208.48            9.42            54.04            7.24
208.89            9.57            54.03            8.08
209.30            9.47            54.58            10.24
209.70            9.67            54.58            10.30
210.11            9.42            54.55            9.88
210.52            9.57            54.50            9.76
210.92            9.38            54.51            10.19
211.33            9.67            54.53            9.69
211.74            9.33            54.58            10.15
212.14            9.57            54.55            9.91
212.55            9.33            54.50            9.86
212.95            9.47            54.57            9.67
213.36            9.52            54.56            9.89
213.77            9.77            54.51            10.09
214.17            9.72            54.50            10.37
214.58            9.62            54.55            9.79
214.99            9.47            54.53            9.92
215.39            9.52            54.59            9.78
215.80            9.47            54.49            10.04
216.21            9.72            54.52            10.04
216.61            9.33            54.55            9.81
217.02            9.52            55.12            12.68
217.42            9.38            55.11            12.53
217.83            9.62            54.99            12.36
218.24            9.72            55.03            12.10
